# Wavelengths	Intensities
 178.16861	  14.33578
 178.38608	33963.51375
 178.60353	1427.43422
 178.82098	1443.81797
 179.03842	1404.90656
 179.25585	1470.44156
 179.47328	1431.53016
 179.69069	1492.96922
 179.90809	1419.24234
 180.12549	1515.49688
 180.34288	1458.15375
 180.56025	1435.62609
 180.77762	1460.20172
 180.99498	1390.57078
 181.21233	1402.85859
 181.42967	1417.19438
 181.64701	1460.20172
 181.86433	1406.95453
 182.08165	1400.81063
 182.29895	1363.94719
 182.51625	1409.00250
 182.73354	1431.53016
 182.95082	1415.14641
 183.16809	1398.76266
 183.38535	1464.29766
 183.60260	1452.00984
 183.81985	1488.87328
 184.03708	1359.85125
 184.25431	1433.57812
 184.47153	1460.20172
 184.68873	1417.19438
 184.90593	1449.96187
 185.12312	1380.33094
 185.34031	1441.77000
 185.55748	1427.43422
 185.77464	1417.19438
 185.99180	1474.53750
 186.20894	1460.20172
 186.42608	1441.77000
 186.64321	1402.85859
 186.86032	1474.53750
 187.07743	1441.77000
 187.29453	1413.09844
 187.51163	1425.38625
 187.72871	1527.78469
 187.94578	1443.81797
 188.16285	1482.72937
 188.37990	1355.75531
 188.59695	1378.28297
 188.81399	1421.29031
 189.03102	1384.42688
 189.24804	1466.34562
 189.46505	1427.43422
 189.68205	1374.18703
 189.89904	1488.87328
 190.11602	1458.15375
 190.33300	1361.89922
 190.54997	1429.48219
 190.76692	1445.86594
 190.98387	1427.43422
 191.20081	1449.96187
 191.41774	1425.38625
 191.63466	1454.05781
 191.85157	1507.30500
 192.06847	1519.59281
 192.28537	1388.52281
 192.50225	1398.76266
 192.71913	1363.94719
 192.93599	1409.00250
 193.15285	1406.95453
 193.36970	1447.91391
 193.58654	1417.19438
 193.80337	1411.05047
 194.02019	1447.91391
 194.23700	1484.77734
 194.45380	1439.72203
 194.67060	1490.92125
 194.88738	1431.53016
 195.10416	1452.00984
 195.32093	1382.37891
 195.53768	1474.53750
 195.75443	1378.28297
 195.97117	1400.81063
 196.18790	1361.89922
 196.40462	1470.44156
 196.62134	1462.24969
 196.83804	1423.33828
 197.05473	1390.57078
 197.27142	1460.20172
 197.48810	1470.44156
 197.70476	1478.63344
 197.92142	1443.81797
 198.13807	1478.63344
 198.35471	1482.72937
 198.57134	1472.48953
 198.78796	1443.81797
 199.00457	1443.81797
 199.22118	1478.63344
 199.43777	1443.81797
 199.65436	1396.71469
 199.87093	1507.30500
 200.08750	1429.48219
 200.30406	1411.05047
 200.52060	1409.00250
 200.73714	1445.86594
 200.95367	1400.81063
 201.17019	1433.57812
 201.38671	1449.96187
 201.60321	1320.93984
 201.81970	1437.67406
 202.03619	1460.20172
 202.25266	1372.13906
 202.46913	1513.44891
 202.68559	1390.57078
 202.90203	1421.29031
 203.11847	1449.96187
 203.33490	1384.42688
 203.55132	1445.86594
 203.76773	1423.33828
 203.98414	1365.99516
 204.20053	1449.96187
 204.41691	1404.90656
 204.63329	1447.91391
 204.84965	1427.43422
 205.06601	1478.63344
 205.28236	1464.29766
 205.49869	1507.30500
 205.71502	1439.72203
 205.93134	1464.29766
 206.14765	1427.43422
 206.36395	1425.38625
 206.58025	1452.00984
 206.79653	1419.24234
 207.01280	1454.05781
 207.22907	1468.39359
 207.44532	1454.05781
 207.66157	1380.33094
 207.87780	1415.14641
 208.09403	1398.76266
 208.31025	1337.32359
 208.52646	1409.00250
 208.74266	1409.00250
 208.95885	1431.53016
 209.17503	1417.19438
 209.39120	1439.72203
 209.60737	1400.81063
 209.82352	1449.96187
 210.03966	1361.89922
 210.25580	1484.77734
 210.47192	1376.23500
 210.68804	1445.86594
 210.90415	1404.90656
 211.12025	1454.05781
 211.33634	1515.49688
 211.55242	1482.72937
 211.76849	1411.05047
 211.98455	1447.91391
 212.20060	1370.09109
 212.41664	1411.05047
 212.63267	1398.76266
 212.84870	1507.30500
 213.06471	1419.24234
 213.28072	1382.37891
 213.49672	1419.24234
 213.71270	1413.09844
 213.92868	1415.14641
 214.14465	1492.96922
 214.36061	1343.46750
 214.57656	1452.00984
 214.79250	1472.48953
 215.00843	1497.06516
 215.22435	1411.05047
 215.44026	1431.53016
 215.65617	1443.81797
 215.87206	1380.33094
 216.08795	1382.37891
 216.30382	1361.89922
 216.51969	1447.91391
 216.73554	1406.95453
 216.95139	1429.48219
 217.16723	1365.99516
 217.38306	1347.56344
 217.59888	1378.28297
 217.81469	1429.48219
 218.03049	1458.15375
 218.24628	1409.00250
 218.46206	1425.38625
 218.67784	1380.33094
 218.89360	1390.57078
 219.10935	1482.72937
 219.32510	1478.63344
 219.54083	1435.62609
 219.75656	1382.37891
 219.97228	1433.57812
 220.18798	1486.82531
 220.40368	1413.09844
 220.61937	1443.81797
 220.83505	1394.66672
 221.05072	1337.32359
 221.26638	1402.85859
 221.48203	1378.28297
 221.69767	1454.05781
 221.91331	1376.23500
 222.12893	1384.42688
 222.34454	1445.86594
 222.56015	1503.20906
 222.77574	1480.68141
 222.99133	1470.44156
 223.20690	1431.53016
 223.42247	1406.95453
 223.63803	1411.05047
 223.85357	1417.19438
 224.06911	1388.52281
 224.28464	1406.95453
 224.50016	1499.11313
 224.71567	1404.90656
 224.93117	1394.66672
 225.14666	1427.43422
 225.36215	1529.83266
 225.57762	1409.00250
 225.79308	1435.62609
 226.00854	1431.53016
 226.22398	1439.72203
 226.43942	1404.90656
 226.65484	1421.29031
 226.87026	1413.09844
 227.08566	1419.24234
 227.30106	1443.81797
 227.51645	1421.29031
 227.73183	1402.85859
 227.94720	1417.19438
 228.16256	1456.10578
 228.37791	1452.00984
 228.59325	1388.52281
 228.80858	1466.34562
 229.02390	1390.57078
 229.23921	1376.23500
 229.45451	1404.90656
 229.66981	1458.15375
 229.88509	1497.06516
 230.10036	1472.48953
 230.31563	1425.38625
 230.53088	1382.37891
 230.74613	1435.62609
 230.96137	1447.91391
 231.17659	1429.48219
 231.39181	1507.30500
 231.60702	1431.53016
 231.82222	1452.00984
 232.03741	1390.57078
 232.25259	1443.81797
 232.46776	1411.05047
 232.68292	1458.15375
 232.89807	1411.05047
 233.11321	1435.62609
 233.32834	1462.24969
 233.54346	1476.58547
 233.75858	1456.10578
 233.97368	1415.14641
 234.18877	1474.53750
 234.40386	1468.39359
 234.61893	1427.43422
 234.83400	1456.10578
 235.04905	1482.72937
 235.26410	1423.33828
 235.47914	1449.96187
 235.69416	1335.27562
 235.90918	1415.14641
 236.12419	1376.23500
 236.33919	1435.62609
 236.55418	1466.34562
 236.76915	1452.00984
 236.98412	1419.24234
 237.19908	1454.05781
 237.41404	1435.62609
 237.62898	1417.19438
 237.84391	1400.81063
 238.05883	1406.95453
 238.27374	1437.67406
 238.48865	1478.63344
 238.70354	1431.53016
 238.91842	1431.53016
 239.13330	1400.81063
 239.34816	1490.92125
 239.56302	1452.00984
 239.77786	1456.10578
 239.99270	1454.05781
 240.20752	1454.05781
 240.42234	1427.43422
 240.63715	1421.29031
 240.85194	1413.09844
 241.06673	1411.05047
 241.28151	1402.85859
 241.49628	1417.19438
 241.71104	1490.92125
 241.92579	1425.38625
 242.14053	1429.48219
 242.35526	1431.53016
 242.56998	1380.33094
 242.78469	1460.20172
 242.99939	1482.72937
 243.21408	1456.10578
 243.42876	1449.96187
 243.64344	1384.42688
 243.85810	1429.48219
 244.07275	1417.19438
 244.28740	1392.61875
 244.50203	1449.96187
 244.71665	1439.72203
 244.93127	1396.71469
 245.14587	1509.35297
 245.36047	1431.53016
 245.57505	1390.57078
 245.78963	1429.48219
 246.00420	1476.58547
 246.21875	1406.95453
 246.43330	1437.67406
 246.64784	1421.29031
 246.86237	1402.85859
 247.07688	1441.77000
 247.29139	1433.57812
 247.50589	1482.72937
 247.72038	1464.29766
 247.93486	1421.29031
 248.14933	1421.29031
 248.36379	1443.81797
 248.57824	1415.14641
 248.79268	1462.24969
 249.00711	1464.29766
 249.22153	1449.96187
 249.43594	1462.24969
 249.65034	1447.91391
 249.86474	1392.61875
 250.07912	1466.34562
 250.29349	1454.05781
 250.50785	1368.04312
 250.72221	1376.23500
 250.93655	1365.99516
 251.15088	1400.81063
 251.36521	1431.53016
 251.57952	1382.37891
 251.79383	1435.62609
 252.00812	1427.43422
 252.22241	1411.05047
 252.43668	1507.30500
 252.65095	1406.95453
 252.86520	1456.10578
 253.07945	1478.63344
 253.29369	1409.00250
 253.50791	1427.43422
 253.72213	1443.81797
 253.93634	1388.52281
 254.15054	1417.19438
 254.36472	1437.67406
 254.57890	1452.00984
 254.79307	1441.77000
 255.00723	1431.53016
 255.22138	1386.47484
 255.43551	1464.29766
 255.64964	1431.53016
 255.86376	1470.44156
 256.07787	1419.24234
 256.29197	1400.81063
 256.50606	1333.22766
 256.72014	1480.68141
 256.93421	1370.09109
 257.14827	1443.81797
 257.36232	1454.05781
 257.57637	1398.76266
 257.79040	1449.96187
 258.00442	1421.29031
 258.21843	1417.19438
 258.43243	1427.43422
 258.64642	1415.14641
 258.86041	1433.57812
 259.07438	1425.38625
 259.28834	1423.33828
 259.50229	1374.18703
 259.71624	1462.24969
 259.93017	1499.11313
 260.14409	1411.05047
 260.35801	1443.81797
 260.57191	1464.29766
 260.78580	1449.96187
 260.99969	1464.29766
 261.21356	1452.00984
 261.42743	1404.90656
 261.64128	1419.24234
 261.85512	1439.72203
 262.06896	1454.05781
 262.28278	1495.01719
 262.49660	1361.89922
 262.71040	1431.53016
 262.92420	1445.86594
 263.13799	1503.20906
 263.35176	1378.28297
 263.56553	1441.77000
 263.77928	1421.29031
 263.99303	1423.33828
 264.20677	1419.24234
 264.42049	1441.77000
 264.63421	1476.58547
 264.84791	1458.15375
 265.06161	1433.57812
 265.27530	1372.13906
 265.48897	1347.56344
 265.70264	1404.90656
 265.91630	1443.81797
 266.12995	1431.53016
 266.34358	1386.47484
 266.55721	1478.63344
 266.77083	1429.48219
 266.98444	1361.89922
 267.19803	1398.76266
 267.41162	1400.81063
 267.62520	1382.37891
 267.83877	1445.86594
 268.05232	1400.81063
 268.26587	1429.48219
 268.47941	1402.85859
 268.69294	1386.47484
 268.90646	1394.66672
 269.11997	1439.72203
 269.33346	1419.24234
 269.54695	1431.53016
 269.76043	1525.73672
 269.97390	1486.82531
 270.18736	1425.38625
 270.40081	1462.24969
 270.61425	1413.09844
 270.82767	1462.24969
 271.04109	1402.85859
 271.25450	1474.53750
 271.46790	1402.85859
 271.68129	1501.16109
 271.89467	1427.43422
 272.10804	1355.75531
 272.32140	1359.85125
 272.53475	1398.76266
 272.74809	1384.42688
 272.96142	1392.61875
 273.17473	1445.86594
 273.38804	1413.09844
 273.60134	1374.18703
 273.81463	1413.09844
 274.02791	1476.58547
 274.24118	1470.44156
 274.45444	1447.91391
 274.66769	1437.67406
 274.88093	1421.29031
 275.09416	1392.61875
 275.30738	1372.13906
 275.52059	1492.96922
 275.73379	1466.34562
 275.94697	1431.53016
 276.16015	1449.96187
 276.37332	1431.53016
 276.58648	1400.81063
 276.79963	1402.85859
 277.01277	1423.33828
 277.22590	1470.44156
 277.43902	1402.85859
 277.65213	1517.54484
 277.86523	1507.30500
 278.07832	1454.05781
 278.29140	1402.85859
 278.50446	1365.99516
 278.71752	1441.77000
 278.93057	1476.58547
 279.14361	1447.91391
 279.35664	1458.15375
 279.56966	1427.43422
 279.78267	1419.24234
 279.99567	1417.19438
 280.20865	1394.66672
 280.42163	1413.09844
 280.63460	1478.63344
 280.84756	1404.90656
 281.06051	1370.09109
 281.27345	1474.53750
 281.48637	1429.48219
 281.69929	1361.89922
 281.91220	1409.00250
 282.12510	1419.24234
 282.33799	1470.44156
 282.55086	1452.00984
 282.76373	1503.20906
 282.97659	1423.33828
 283.18944	1480.68141
 283.40227	1386.47484
 283.61510	1417.19438
 283.82792	1400.81063
 284.04072	1441.77000
 284.25352	1400.81063
 284.46631	1441.77000
 284.67908	1396.71469
 284.89185	1421.29031
 285.10461	1404.90656
 285.31735	1531.88063
 285.53009	1486.82531
 285.74282	1449.96187
 285.95553	1497.06516
 286.16824	1396.71469
 286.38093	1417.19438
 286.59362	1476.58547
 286.80629	1472.48953
 287.01896	1523.68875
 287.23161	1423.33828
 287.44426	1464.29766
 287.65689	1470.44156
 287.86952	1353.70734
 288.08213	1386.47484
 288.29474	1486.82531
 288.50733	1437.67406
 288.71992	1472.48953
 288.93249	1396.71469
 289.14505	1423.33828
 289.35761	1363.94719
 289.57015	1402.85859
 289.78268	1423.33828
 289.99521	1441.77000
 290.20772	1470.44156
 290.42022	1462.24969
 290.63271	1435.62609
 290.84520	1480.68141
 291.05767	1419.24234
 291.27013	1466.34562
 291.48258	1374.18703
 291.69502	1480.68141
 291.90745	1468.39359
 292.11987	1509.35297
 292.33229	1476.58547
 292.54469	1495.01719
 292.75708	1335.27562
 292.96946	1433.57812
 293.18183	1392.61875
 293.39419	1396.71469
 293.60654	1460.20172
 293.81888	1458.15375
 294.03120	1411.05047
 294.24352	1402.85859
 294.45583	1449.96187
 294.66813	1466.34562
 294.88042	1351.65937
 295.09270	1470.44156
 295.30496	1394.66672
 295.51722	1427.43422
 295.72947	1376.23500
 295.94171	1402.85859
 296.15393	1497.06516
 296.36615	1466.34562
 296.57836	1402.85859
 296.79055	1433.57812
 297.00274	1447.91391
 297.21491	1443.81797
 297.42708	1417.19438
 297.63923	1462.24969
 297.85138	1404.90656
 298.06351	1388.52281
 298.27564	1382.37891
 298.48775	1456.10578
 298.69985	1445.86594
 298.91195	1458.15375
 299.12403	1445.86594
 299.33610	1464.29766
 299.54816	1462.24969
 299.76022	1417.19438
 299.97226	1392.61875
 300.18429	1456.10578
 300.39631	1435.62609
 300.60832	1400.81063
 300.82032	1476.58547
 301.03231	1419.24234
 301.24429	1492.96922
 301.45626	1421.29031
 301.66822	1415.14641
 301.88017	1460.20172
 302.09211	1421.29031
 302.30404	1423.33828
 302.51596	1343.46750
 302.72786	1478.63344
 302.93976	1429.48219
 303.15165	1458.15375
 303.36352	1400.81063
 303.57539	1411.05047
 303.78725	1460.20172
 303.99909	1466.34562
 304.21093	1441.77000
 304.42275	1458.15375
 304.63457	1417.19438
 304.84637	1470.44156
 305.05817	1470.44156
 305.26995	1470.44156
 305.48172	1472.48953
 305.69349	1456.10578
 305.90524	1392.61875
 306.11698	1411.05047
 306.32871	1370.09109
 306.54043	1497.06516
 306.75214	1413.09844
 306.96384	1482.72937
 307.17554	1441.77000
 307.38721	1466.34562
 307.59888	1337.32359
 307.81054	1415.14641
 308.02219	1486.82531
 308.23383	1378.28297
 308.44546	1429.48219
 308.65708	1413.09844
 308.86868	1386.47484
 309.08028	1411.05047
 309.29187	1392.61875
 309.50344	1396.71469
 309.71501	1417.19438
 309.92656	1462.24969
 310.13811	1411.05047
 310.34964	1404.90656
 310.56116	1411.05047
 310.77268	1402.85859
 310.98418	1376.23500
 311.19567	1456.10578
 311.40716	1372.13906
 311.61863	1415.14641
 311.83009	1472.48953
 312.04154	1435.62609
 312.25298	1449.96187
 312.46441	1415.14641
 312.67583	1492.96922
 312.88724	1372.13906
 313.09864	1419.24234
 313.31002	1486.82531
 313.52140	1452.00984
 313.73277	1400.81063
 313.94413	1333.22766
 314.15547	1464.29766
 314.36681	1466.34562
 314.57813	1425.38625
 314.78945	1441.77000
 315.00075	1447.91391
 315.21205	1468.39359
 315.42333	1382.37891
 315.63460	1462.24969
 315.84587	1456.10578
 316.05712	1464.29766
 316.26836	1449.96187
 316.47959	1378.28297
 316.69081	1478.63344
 316.90202	1415.14641
 317.11322	1357.80328
 317.32441	1468.39359
 317.53559	1437.67406
 317.74675	1484.77734
 317.95791	1458.15375
 318.16906	1413.09844
 318.38020	1370.09109
 318.59132	1474.53750
 318.80244	1386.47484
 319.01354	1484.77734
 319.22464	1511.40094
 319.43572	1435.62609
 319.64679	1503.20906
 319.85786	1431.53016
 320.06891	1437.67406
 320.27995	1435.62609
 320.49098	1433.57812
 320.70200	1470.44156
 320.91301	1411.05047
 321.12401	1396.71469
 321.33500	1462.24969
 321.54598	1441.77000
 321.75695	1437.67406
 321.96790	1449.96187
 322.17885	1400.81063
 322.38979	1449.96187
 322.60071	1431.53016
 322.81163	1368.04312
 323.02253	1492.96922
 323.23343	1423.33828
 323.44431	1427.43422
 323.65518	1462.24969
 323.86604	1413.09844
 324.07690	1454.05781
 324.28774	1425.38625
 324.49857	1482.72937
 324.70939	1460.20172
 324.92020	1370.09109
 325.13099	1441.77000
 325.34178	1359.85125
 325.55256	1384.42688
 325.76333	1421.29031
 325.97408	1460.20172
 326.18483	1406.95453
 326.39556	1435.62609
 326.60629	1458.15375
 326.81700	1466.34562
 327.02770	1406.95453
 327.23840	1411.05047
 327.44908	1413.09844
 327.65975	1429.48219
 327.87041	1449.96187
 328.08106	1497.06516
 328.29170	1439.72203
 328.50233	1415.14641
 328.71295	1388.52281
 328.92355	1439.72203
 329.13415	1376.23500
 329.34474	1374.18703
 329.55531	1400.81063
 329.76588	1437.67406
 329.97643	1400.81063
 330.18698	1423.33828
 330.39751	1464.29766
 330.60803	1505.25703
 330.81854	1382.37891
 331.02904	1429.48219
 331.23953	1427.43422
 331.45001	1415.14641
 331.66048	1437.67406
 331.87094	1425.38625
 332.08139	1445.86594
 332.29183	1443.81797
 332.50225	1417.19438
 332.71267	1394.66672
 332.92307	1470.44156
 333.13347	1449.96187
 333.34385	1443.81797
 333.55422	1415.14641
 333.76458	1447.91391
 333.97494	1431.53016
 334.18528	1365.99516
 334.39561	1460.20172
 334.60593	1351.65937
 334.81623	1406.95453
 335.02653	1398.76266
 335.23682	1443.81797
 335.44709	1380.33094
 335.65736	1368.04312
 335.86762	1458.15375
 336.07786	1437.67406
 336.28809	1404.90656
 336.49832	1411.05047
 336.70853	1443.81797
 336.91873	1355.75531
 337.12892	1462.24969
 337.33910	1363.94719
 337.54927	1443.81797
 337.75943	1495.01719
 337.96957	1447.91391
 338.17971	1388.52281
 338.38984	1492.96922
 338.59995	1490.92125
 338.81006	1421.29031
 339.02015	1357.80328
 339.23023	1378.28297
 339.44031	1404.90656
 339.65037	1382.37891
 339.86042	1456.10578
 340.07046	1462.24969
 340.28049	1499.11313
 340.49051	1384.42688
 340.70051	1462.24969
 340.91051	1468.39359
 341.12050	1437.67406
 341.33047	1431.53016
 341.54044	1394.66672
 341.75039	1507.30500
 341.96033	1437.67406
 342.17026	1402.85859
 342.38018	1538.02453
 342.59010	1417.19438
 342.79999	1462.24969
 343.00988	1452.00984
 343.21976	1480.68141
 343.42963	1433.57812
 343.63949	1456.10578
 343.84933	1439.72203
 344.05917	1507.30500
 344.26899	1474.53750
 344.47880	1327.08375
 344.68860	1339.37156
 344.89840	1425.38625
 345.10818	1423.33828
 345.31795	1443.81797
 345.52771	1421.29031
 345.73745	1351.65937
 345.94719	1482.72937
 346.15692	1515.49688
 346.36663	1433.57812
 346.57634	1472.48953
 346.78603	1454.05781
 346.99571	1472.48953
 347.20539	1452.00984
 347.41505	1492.96922
 347.62470	1490.92125
 347.83434	1449.96187
 348.04397	1419.24234
 348.25358	1456.10578
 348.46319	1415.14641
 348.67279	1447.91391
 348.88237	1482.72937
 349.09195	1431.53016
 349.30151	1441.77000
 349.51106	1400.81063
 349.72060	1474.53750
 349.93013	1503.20906
 350.13965	1449.96187
 350.34916	1445.86594
 350.55866	1417.19438
 350.76815	1409.00250
 350.97762	1445.86594
 351.18709	1445.86594
 351.39654	1466.34562
 351.60599	1402.85859
 351.81542	1452.00984
 352.02484	1490.92125
 352.23425	1437.67406
 352.44365	1460.20172
 352.65304	1501.16109
 352.86242	1429.48219
 353.07179	1468.39359
 353.28114	1488.87328
 353.49049	1497.06516
 353.69982	1425.38625
 353.90914	1464.29766
 354.11846	1454.05781
 354.32776	1472.48953
 354.53705	1497.06516
 354.74633	1388.52281
 354.95560	1527.78469
 355.16485	1437.67406
 355.37410	1441.77000
 355.58334	1482.72937
 355.79256	1423.33828
 356.00177	1495.01719
 356.21098	1460.20172
 356.42017	1484.77734
 356.62935	1427.43422
 356.83852	1454.05781
 357.04768	1441.77000
 357.25683	1382.37891
 357.46596	1404.90656
 357.67509	1464.29766
 357.88420	1411.05047
 358.09331	1474.53750
 358.30240	1404.90656
 358.51148	1466.34562
 358.72055	1470.44156
 358.92961	1411.05047
 359.13866	1411.05047
 359.34770	1472.48953
 359.55673	1443.81797
 359.76574	1445.86594
 359.97475	1447.91391
 360.18374	1409.00250
 360.39272	1421.29031
 360.60170	1507.30500
 360.81066	1443.81797
 361.01961	1443.81797
 361.22855	1441.77000
 361.43747	1406.95453
 361.64639	1409.00250
 361.85530	1441.77000
 362.06419	1447.91391
 362.27307	1452.00984
 362.48195	1409.00250
 362.69081	1402.85859
 362.89966	1476.58547
 363.10850	1411.05047
